2theta   chi    x    y  I
59.08250046 22.20380020 583.79260254 1717.06225586 165.31466675
70.56749725 -30.79129982 1635.16076660 1474.07751465 152.57810974
69.77909851 32.01589966 356.52178955 1495.00854492 151.09368896
114.98110199 8.67459965 853.16699219 544.95343018 147.66184998
78.91020203 0.69650000 999.10638428 1247.71228027 139.18098450
110.49430084 0.93070000 996.54632568 648.40521240 138.52487183
64.59500122 -19.02840042 1371.77648926 1568.96435547 109.70674896
101.97029877 -19.92119980 1394.45166016 806.06372070 107.62686920
92.90440369 -43.00540161 1992.77258301 972.20477295 107.33103180
101.43470001 21.56130028 597.48217773 812.12792969 107.21882629
91.85949707 44.34749985 -14.34480000 991.38421631 106.39769745
75.65440369 -19.45750046 1381.92248535 1327.58593750 103.39988708
75.13420105 20.77720070 613.93249512 1338.53234863 102.79531097
131.61790466 -0.85509998 1031.07202148 102.86139679 101.94864655
101.13670349 -22.34939957 1445.63061523 819.56042480 100.29949188
119.68360138 -20.41430092 1407.05249023 401.66268921 98.61621857
119.13159943 22.39130020 579.74450684 404.95339966 98.33953857
101.75219727 0.85039997 997.51611328 823.25408936 95.16902924
86.75219727 43.65790176 10.62139988 1121.49194336 91.50068665
117.84970093 1.01329994 995.49761963 484.92669678 88.42913818
96.35910034 14.86979961 733.73681641 920.11840820 88.34265900
92.72290039 -31.39389992 1653.84570312 985.54937744 82.54244232
91.91870117 32.83240128 334.70620728 998.24389648 81.98905945
113.11299896 35.35530090 266.08459473 488.15200806 81.90994263
109.10150146 -32.02280045 1672.61474609 613.83801270 79.79107666
129.38450623 1.18570006 993.20690918 174.40669250 79.59780884
108.28089905 33.68030167 311.75009155 621.88177490 79.38291168
117.15840149 -24.75690079 1500.62512207 447.79251099 78.35811615
77.24639893 -13.98540020 1272.86596680 1287.51855469 76.57331848
76.86360168 15.33860016 724.14282227 1295.01940918 76.25328064
112.08309937 -14.42300034 1284.74841309 601.62768555 76.17359161
111.68270111 16.27330017 706.25311279 604.88232422 75.99419403
121.23909760 -32.67979813 1692.09826660 283.27688599 73.79970551
120.40129852 34.56100082 287.42718506 287.72900391 73.49444580
65.72540283 -3.28870010 1071.20410156 1515.21813965 72.29466248
96.76940155 0.81120002 997.96490479 917.32843018 71.89237976
93.47429657 -7.23540020 1146.06652832 978.26062012 71.48381805
123.28099823 -14.65760040 1290.70825195 326.79901123 70.37564850
122.87120056 16.77249908 696.48260498 328.78460693 70.23961639
88.04930115 -34.82149887 1742.65942383 1087.92041016 68.21999359
127.17960358 27.65970039 461.22720337 135.36659241 67.71498108
47.32490158 0.55080003 999.55780029 2003.97570801 67.66834259
59.66960144 -34.25699997 1721.82617188 1783.90734863 66.28231812
91.44419861 -24.31800079 1487.26855469 1014.52868652 65.75205994
90.80370331 25.78790092 505.01800537 1024.27819824 65.39332581
100.12210083 -38.73799896 1857.19079590 803.90710449 64.93666840
121.08959961 1.05540001 994.94781494 405.84851074 64.70230103
99.16040039 40.20119858 124.16979980 817.40441895 64.47885895
131.85459900 -14.90380001 1296.87121582 62.67029953 64.24752808
131.43510437 17.29459953 686.14642334 63.49959946 64.14215851
93.96019745 -10.92840004 1215.59155273 968.68231201 62.80732346
125.77500153 -26.57640076 1543.56640625 192.47610474 62.68617630
93.65329742 12.49079990 779.90429688 972.74841309 62.65043640
111.83000183 -39.36040115 1878.90747070 498.51449585 62.21694946
73.93080139 -23.95870018 1477.10021973 1373.86254883 62.08550644
79.77300262 36.78229904 227.87159729 1276.01184082 62.06827545
110.85410309 40.97880173 98.35569763 507.46130371 61.85673141
73.30100250 25.24410057 517.43188477 1388.18408203 61.63199234
108.94300079 -10.47200012 1208.20275879 675.21960449 61.52998352
106.71029663 -11.04269981 1218.86853027 720.79699707 61.41400528
116.04519653 -25.07679939 1507.60949707 474.67291260 61.29249954
106.39779663 12.80589962 774.16418457 723.78021240 61.28945923
115.38200378 26.93040085 478.52130127 479.42929077 61.07038116
86.78459930 17.18339920 687.64990234 1102.92504883 60.84109116
125.30000305 3.48639989 950.39807129 293.02059937 60.79019928
77.92259979 -10.81820011 1212.15991211 1271.19836426 60.46607208
77.62100220 12.18649960 785.32427979 1276.93054199 60.26946640
101.39160156 31.20750046 375.85501099 792.40270996 60.04985428
51.15039825 -13.78100014 1265.90820312 1908.66894531 59.79866791
104.03849792 -35.27299881 1758.01416016 721.99700928 59.59379959
50.77560043 14.90050030 732.09277344 1923.01452637 59.39028549
66.30580139 -37.55070114 1814.82714844 1623.58691406 58.53214645
65.37159729 38.70719910 172.62289429 1654.00781250 57.80069351
56.06750107 0.58649999 999.66461182 1745.31335449 57.65682602
93.56140137 0.78780001 998.22039795 976.71789551 57.56515503
124.63410187 -25.47769928 1518.19335938 235.48669434 57.19174576
123.95890045 27.53070068 464.34271240 238.35069275 57.01426315
105.43379974 0.88230002 997.13879395 751.52441406 56.53809738
103.94719696 12.68360043 776.46069336 773.58587646 55.88808823
87.03679657 -20.83169937 1411.76049805 1101.51245117 55.45466232
135.99060059 1.32200003 991.33917236 -53.83380127 54.88673401
98.74720001 -31.60050011 1660.04943848 854.11798096 54.84112930
86.05370331 -31.19020081 1647.66015625 1128.72082520 54.56972122
125.00170135 -11.28460026 1225.41735840 288.85321045 54.54088593
97.93759918 33.11149979 327.19409180 865.05688477 54.50797272
124.67739868 13.47070026 761.82031250 290.25769043 54.46047592
90.10729980 -19.68580055 1388.24304199 1041.20544434 54.17461395
85.25489807 32.55680084 342.08999634 1143.51562500 54.16156006
115.05639648 0.97990000 995.92572021 549.31738281 54.04850388
89.57949829 21.16370010 605.86450195 1049.21154785 53.92544556
87.23249817 0.62180001 1000.92626953 1092.88745117 53.53353500
115.08529663 25.99049950 500.11029053 491.52758789 53.46581268
103.98200226 -43.56499863 2015.03601074 683.33697510 52.78627014
102.92539978 45.02320099 -40.14609909 697.16387939 52.40420151
118.40219879 -13.15820026 1260.77233887 457.24508667 52.29233932
79.37989807 -42.45940018 1970.89990234 1311.48852539 52.17289734
64.89700317 4.07049990 936.51452637 1533.54492188 51.93172836
111.68699646 -20.16390038 1400.69555664 596.97149658 51.91501236
111.14330292 21.97030067 588.77972412 601.54077148 51.74761963
78.34660339 43.68539810 10.53719997 1338.07836914 51.60472488
102.77580261 -8.88609982 1177.68408203 801.20257568 51.16581345
102.51999664 10.58850002 816.52490234 803.90917969 51.07466125
113.93250275 -35.64239883 1770.34460449 468.52261353 51.03702164
131.62379456 -11.41259956 1228.79028320 84.28690338 50.74632645
131.29339600 13.82159996 755.21557617 84.99739838 50.68048477
117.57810211 -32.45759964 1685.50292969 391.06729126 50.63109207
116.74610138 34.26369858 295.69790649 396.65991211 50.40741730
52.13130188 -23.61179924 1466.06542969 1929.32177734 50.11629486
78.26670074 -8.76459980 1173.48754883 1263.03015137 49.85469818
78.01830292 10.14089966 824.23742676 1267.67785645 49.72202682
51.51190186 24.71769905 529.37261963 1954.13989258 49.56248856
79.17459869 -40.92770004 1920.63781738 1310.21899414 49.45373154
111.96260071 -8.94970036 1179.66516113 612.59741211 49.40721130
111.70290375 10.82219982 812.38067627 614.68878174 49.33167648
101.65190125 -2.39389992 1057.09924316 825.19067383 49.12158203
61.05059814 0.60810000 999.63372803 1620.77990723 48.84274673
91.32659912 0.77240002 998.38421631 1017.79559326 47.91791916
124.57260132 -32.90530014 1698.80712891 176.84010315 47.73294830
97.17819977 -26.47559929 1536.54687500 895.80920410 47.05167389
119.59729767 -9.01519966 1181.63720703 436.04379272 47.04726410
119.33360291 11.06299973 808.06427002 437.60791016 46.98424530
93.09110260 -36.43870163 1788.48999023 973.95892334 46.88359833
124.09359741 21.17550087 605.72650146 274.41790771 46.82884216
96.48590088 28.00469971 453.79879761 905.12030029 46.80055237
92.17769623 37.84159851 196.44079590 989.12438965 46.52865982
93.66079712 29.03919983 429.27520752 963.51208496 46.49080276
126.31890106 -20.67280006 1413.57019043 213.36279297 46.46641541
94.16020203 -40.80590057 1920.17651367 943.89050293 46.40171051
125.75830078 22.82469940 570.36090088 215.47799683 46.35103989
102.90920258 -36.85319901 1802.27014160 743.05291748 46.30075455
75.48239899 33.20220184 325.73190308 1364.39916992 46.27799988
106.44979858 -26.77079964 1544.67370605 695.57012939 46.07048798
101.98590088 38.37080002 180.10110474 754.68890381 46.00251770
81.41149902 -36.03369904 1774.84240723 1240.34399414 45.89227676
88.93029785 -16.45680046 1322.61035156 1063.54284668 45.86766815
105.74890137 28.43350029 443.46591187 702.83172607 45.85942078
81.06210327 18.38899994 663.22448730 1214.97949219 45.76633835
88.48320007 17.93409920 672.53637695 1070.37133789 45.68533707
80.50779724 37.32279968 212.30079651 1260.25500488 45.47085571
87.13269806 -45.92729950 2096.49609375 1121.01000977 45.12912369
84.43910217 -11.60490036 1227.68395996 1147.12915039 45.06116104
124.66870117 -15.41419983 1305.86083984 285.51181030 44.93846893
108.11340332 -16.77400017 1330.92822266 683.38110352 44.76838684
58.29209900 -19.23600006 1375.14038086 1727.20214844 44.72861862
134.78149414 1.29419994 991.72247314 -8.18669987 44.65525818
107.65470123 18.53520012 660.52667236 687.66412354 44.63835526
62.25960159 -8.70660019 1171.00964355 1599.26269531 44.41195297
57.77920151 20.40119934 621.67590332 1743.75048828 44.36968613
114.25319672 -27.07379913 1552.93261719 510.36129761 44.36958694
110.53589630 -23.64270020 1474.94348145 612.75878906 44.31304169
102.08599854 39.44699860 147.43119812 747.73437500 44.28232956
62.01480103 9.92660046 827.70452881 1605.95764160 44.25495529
73.06510162 -25.90710068 1520.28088379 1398.34057617 44.23390961
113.54370117 28.87220001 432.79739380 515.90051270 44.19149399
65.75199890 -9.49650002 1186.13623047 1520.73315430 44.14219666
120.56629944 -35.95009995 1780.57836914 274.05300903 44.06645203
76.63800049 -16.30439949 1318.34094238 1302.54614258 44.05944443
72.38919830 27.17620087 473.55380249 1414.33166504 43.88154984
76.19640350 17.64450073 678.23358154 1311.43676758 43.84468842
89.97540283 -7.36110020 1148.15295410 1043.02880859 43.79426575
111.37370300 -5.03940010 1106.59985352 628.59759521 43.78789902
89.76180267 8.87899971 848.39257812 1046.09375000 43.71269608
99.79060364 -7.39440012 1149.50061035 859.58050537 43.71118546
135.79049683 -4.50209999 1099.08032227 -48.92029953 43.64186096
99.57430267 9.05249977 845.46759033 862.04260254 43.64174652
131.87800598 -20.93969917 1420.28295898 27.94829941 43.64073944
131.30859375 23.27099991 560.61047363 28.92840004 43.54353714
80.97170258 -29.15200043 1596.93676758 1234.75476074 43.53804016
106.41020203 25.10269928 520.27368164 698.27697754 43.36584854
122.44400024 5.11369991 920.06231689 368.36871338 43.17390442
115.54199982 -16.93899918 1335.11547852 516.51330566 43.07481766
115.07730103 18.84709930 654.21942139 519.85137939 42.96453857
118.12950134 -37.71189880 1830.77465820 331.28009033 42.88740158
117.18579865 39.46139908 145.72779846 337.38598633 42.67460632
78.46369934 -7.32859993 1146.69665527 1258.38769531 42.37178421
78.25270081 8.70960045 851.16687012 1262.29980469 42.27636337
97.25330353 -13.45429993 1264.39074707 905.33947754 42.13011551
82.65470123 5.26889992 915.30267334 1177.71130371 42.09423828
124.07569885 1.09819996 994.38220215 327.95159912 42.02676773
64.25869751 0.62269998 999.58459473 1546.77233887 42.01137161
131.38789368 -9.15270042 1185.64477539 98.95529938 41.90582657
62.03219986 -28.36770058 1575.17602539 1674.85620117 41.90231323
104.38150024 -40.70130157 1919.21972656 688.76342773 41.88399506
131.11579895 11.56690025 798.91967773 99.57379913 41.86084747
115.26560211 -7.46369982 1152.05895996 540.87988281 41.17238998
130.27450562 16.77770042 696.54962158 105.61730194 41.14509964
115.04360199 9.41300011 839.24450684 542.46228027 41.12186813
121.85829926 -17.10860062 1339.36914062 356.93420410 41.10498428
94.00820160 -29.83259964 1615.37561035 959.08721924 41.06250000
121.38739777 19.16699982 647.70550537 359.42028809 41.01090240
89.68150330 0.76139998 998.49780273 1047.96264648 41.00182343
95.67929840 -22.67320061 1451.92175293 930.19610596 40.99007416
98.95890045 0.82789999 997.77581787 876.33142090 40.98745346
101.53630066 -31.70499992 1663.16711426 791.68731689 40.92105103
95.07759857 24.20669937 540.28387451 938.35412598 40.79501343
100.72399902 33.25230026 323.38708496 801.84002686 40.68358231
107.15329742 11.63679981 796.67187500 709.75781250 40.67259598
85.92819977 -22.46509933 1446.26916504 1124.33044434 40.62607956
97.53350067 -40.36090088 1906.77905273 862.32940674 40.54852295
82.45939636 -31.08939934 1644.56225586 1206.23034668 40.52574921
88.27130127 -39.96900177 1892.40576172 1086.15734863 40.49130630
85.33300018 23.88030052 547.51507568 1134.47814941 40.39938736
96.53949738 41.77759933 73.58200073 877.71166992 40.23923111
81.66329956 32.42029953 345.73721313 1222.25939941 40.20404434
95.83650208 2.61290002 964.83111572 934.46710205 40.19266891
126.47380066 -27.70420074 1570.04565430 161.41870117 40.17997360
106.93409729 0.89600003 996.97259521 721.56951904 40.17577744
87.28610229 41.29280090 90.25289917 1105.63061523 40.13158417
64.05010223 8.20030022 860.12347412 1556.25329590 40.09298325
125.74620056 29.78100014 410.36819458 163.94490051 40.05070496
# Cor file generated by LaueTools Polygrains Simulation Software
# File created at Wed Jun 12 10:55:14 2019 by by ParametricLaueSimulator.py
# Calibration parameters
# dd     :   77.088
# xcen     :   1012.45
# ycen     :   1049.92
# xbet     :   0.423
# xgam     :   0.172
# pixelsize    :   0.0734
# ypixelsize    :   0.0734
# CCDLabel    :   sCMOS
