#CCD Geometry Refinement from experimental file: /home/micha/LaueToolsPy3/LaueTools/Examples/Ge/Ge0001.dat
#File created at Fri Feb 21 16:42:32 2020 with DetectorCalibration.py
#Number of indexed spots: 83
#Element
#Si
#Mean Deviation(pixel): 0.402
#spot_index Itot h k l Xtheo Ytheo Xexp Yexp XdevCalib YdevCalib pixDevCalib 2theta_theo chi_theo Energy PeakAmplitude Imax PeakBkg PeakFwhm1 PeakFwhm2 PeakTilt XdevPeakFit YdevPeakFit
0.000000 70931.270000 -3.000000 3.000000 3.000000 1026.917670 1293.729090 1027.110000 1293.280000 -0.192330 0.449090 0.488540 78.186090 1.645990 9.405680 70931.270000 500.000000 271.350000 1.050000 1.000000 201.470000 0.400000 0.090000
1.000000 51933.840000 -2.000000 2.000000 4.000000 1378.926870 1553.713180 1379.170000 1553.580000 -0.243130 0.133180 0.277220 64.322290 -20.823870 10.505020 51933.840000 500.000000 219.830000 0.820000 0.850000 195.680000 0.580000 0.340000
2.000000 22795.070000 -3.000000 3.000000 5.000000 1288.269540 1459.884200 1288.110000 1460.160000 0.159540 -0.275800 0.318620 68.698400 -15.378290 13.265510 22795.070000 500.000000 206.660000 0.560000 0.740000 134.120000 -0.020000 0.630000
3.000000 19489.690000 -5.000000 3.000000 3.000000 925.902270 872.447100 926.220000 872.060000 -0.317730 0.387100 0.500800 105.580440 8.197280 9.398060 19489.690000 500.000000 279.330000 0.650000 0.690000 182.310000 0.720000 0.060000
4.000000 19058.790000 -6.000000 4.000000 2.000000 595.634240 876.166410 595.460000 876.440000 0.174240 -0.273590 0.324370 103.861980 27.849710 10.849780 19058.790000 500.000000 214.980000 0.740000 0.870000 189.560000 0.310000 0.740000
5.000000 17182.880000 -6.000000 2.000000 4.000000 1183.534640 598.896600 1183.270000 598.920000 0.264640 -0.023400 0.265670 120.579540 -8.921840 9.834510 17182.880000 500.000000 212.930000 0.830000 0.760000 186.030000 0.120000 0.620000
6.000000 15825.390000 -4.000000 6.000000 2.000000 626.051060 1661.483970 626.120000 1661.280000 -0.068940 0.203970 0.215310 60.335150 26.484470 16.997350 15825.390000 500.000000 124.750000 0.740000 0.840000 200.000000 0.620000 0.280000
7.000000 15486.200000 -3.000000 5.000000 3.000000 856.419580 1702.336760 856.140000 1702.520000 0.279580 -0.183240 0.334280 56.261510 12.941040 15.875080 15486.200000 500.000000 131.610000 0.830000 0.820000 214.140000 0.030000 0.240000
8.000000 13318.810000 -3.000000 1.000000 5.000000 1672.313050 1258.453450 1672.670000 1258.620000 -0.356950 -0.166550 0.393890 82.089910 -35.878050 10.283700 13318.810000 500.000000 154.580000 0.930000 0.890000 87.130000 0.830000 0.780000
9.000000 13145.990000 -4.000000 2.000000 6.000000 1497.287090 1224.367980 1497.400000 1224.700000 -0.112910 -0.332020 0.350690 83.376850 -27.452810 12.843110 13145.990000 500.000000 198.070000 0.830000 0.910000 137.930000 0.820000 0.820000
10.000000 11799.930000 -6.000000 4.000000 6.000000 1176.684320 1085.794490 1176.090000 1086.190000 0.594320 -0.395510 0.713900 91.825220 -8.347540 14.907260 11799.930000 500.000000 289.110000 0.700000 0.680000 61.300000 0.090000 0.690000
11.000000 11662.160000 -5.000000 5.000000 3.000000 780.509170 1242.245700 780.270000 1242.530000 0.239170 -0.284300 0.371520 81.967830 17.510350 13.368210 11662.160000 500.000000 243.960000 0.630000 0.630000 185.060000 0.090000 0.710000
12.000000 10727.930000 -6.000000 6.000000 4.000000 828.654130 1245.908770 828.680000 1246.060000 -0.025870 -0.151230 0.153420 81.603680 14.544000 16.386350 10727.930000 500.000000 253.550000 0.790000 0.780000 157.070000 0.390000 0.560000
13.000000 10271.900000 -7.000000 3.000000 3.000000 819.630520 552.913070 819.910000 552.840000 -0.279480 0.073070 0.288880 122.271140 14.884240 10.668420 10271.900000 500.000000 182.460000 0.830000 0.800000 290.680000 0.410000 -0.160000
14.000000 10010.520000 -4.000000 2.000000 2.000000 873.480570 706.721610 873.560000 706.970000 -0.079430 -0.248390 0.260780 114.937450 11.534780 6.632500 10010.520000 500.000000 223.670000 0.860000 0.870000 226.370000 0.280000 0.470000
15.000000 9107.770000 -3.000000 5.000000 5.000000 1085.720230 1726.431700 1085.800000 1725.830000 -0.079770 0.601700 0.606970 54.467770 -2.152390 19.158750 9107.770000 500.000000 122.720000 0.790000 0.790000 218.720000 0.300000 -0.170000
16.000000 8515.140000 -5.000000 1.000000 5.000000 1579.725340 754.603150 1579.390000 754.630000 0.335340 -0.026850 0.336410 109.464800 -31.677440 9.983840 8515.140000 500.000000 163.190000 0.840000 0.890000 137.370000 0.180000 0.350000
17.000000 8262.020000 -5.000000 3.000000 5.000000 1216.114560 1042.600220 1216.490000 1042.280000 -0.375440 0.320220 0.493460 94.619200 -10.914810 11.928120 8262.020000 500.000000 278.300000 0.720000 0.620000 209.060000 0.610000 0.150000
18.000000 6598.440000 -7.000000 1.000000 5.000000 1481.491870 364.712170 1481.200000 364.840000 0.291870 -0.127830 0.318630 127.784820 -26.757790 11.008270 6598.440000 500.000000 120.960000 0.790000 0.860000 51.790000 0.040000 0.380000
19.000000 6505.450000 -5.000000 5.000000 1.000000 399.840890 1297.231840 399.870000 1297.190000 -0.029110 0.041840 0.050970 80.501460 37.210700 12.615730 6505.450000 500.000000 135.930000 0.840000 0.800000 16.530000 0.370000 0.690000
20.000000 6137.870000 -3.000000 3.000000 1.000000 547.850610 1260.092590 548.250000 1260.320000 -0.399390 -0.227410 0.459590 81.775980 30.397440 7.600850 6137.870000 500.000000 177.030000 0.770000 0.880000 186.160000 0.630000 0.710000
21.000000 5781.180000 -5.000000 3.000000 7.000000 1396.915350 1217.175140 1396.710000 1217.560000 0.205350 -0.384860 0.436220 83.546000 -21.931400 15.609770 5781.180000 500.000000 219.560000 0.740000 0.780000 238.140000 0.580000 0.680000
22.000000 5481.590000 -6.000000 2.000000 8.000000 1573.525950 1073.619140 1573.490000 1073.130000 0.035950 0.489140 0.490460 92.168430 -31.333790 16.159090 5481.590000 500.000000 178.570000 0.840000 0.660000 44.490000 0.690000 0.130000
23.000000 5182.440000 -5.000000 5.000000 7.000000 1199.414300 1387.660450 1199.060000 1387.530000 0.354300 0.130450 0.377550 72.512560 -9.748100 19.203820 5182.440000 500.000000 222.650000 0.640000 0.690000 201.160000 0.060000 0.240000
24.000000 5055.990000 -8.000000 2.000000 6.000000 1352.327990 567.941530 1352.760000 568.030000 -0.432010 -0.088470 0.440980 120.838650 -19.460340 13.384940 5055.990000 500.000000 166.290000 0.620000 0.780000 113.480000 0.870000 0.360000
25.000000 4950.230000 -8.000000 6.000000 2.000000 467.355530 984.582880 467.050000 984.600000 0.305530 -0.017120 0.306010 97.247180 34.152760 15.512560 4950.230000 500.000000 165.340000 0.790000 0.710000 189.480000 0.050000 0.400000
26.000000 4761.410000 -7.000000 7.000000 3.000000 639.336180 1246.588490 638.870000 1246.590000 0.466180 -0.001510 0.466190 82.181980 25.639740 17.964150 4761.410000 500.000000 200.160000 0.670000 0.620000 249.290000 -0.130000 0.310000
27.000000 4673.940000 -7.000000 5.000000 5.000000 966.879140 1020.333210 967.150000 1019.900000 -0.270860 0.433210 0.510920 96.219170 5.550900 15.256240 4673.940000 500.000000 288.970000 0.760000 0.770000 344.490000 0.650000 -0.100000
28.000000 4649.480000 -8.000000 6.000000 6.000000 976.998350 1060.549140 977.500000 1060.310000 -0.501650 0.239140 0.555730 93.570660 4.894020 18.264800 4649.480000 500.000000 293.710000 0.700000 0.770000 339.850000 0.780000 0.310000
29.000000 4413.680000 -7.000000 5.000000 3.000000 702.432620 950.628130 702.520000 949.880000 -0.087380 0.748130 0.753220 100.089690 22.026610 13.565940 4413.680000 500.000000 227.750000 0.700000 0.850000 331.090000 0.230000 -0.120000
30.000000 4400.610000 -5.000000 3.000000 1.000000 383.959860 754.750720 383.770000 754.580000 0.189860 0.170720 0.255320 108.428530 37.729640 8.324360 4400.610000 500.000000 132.660000 0.970000 0.880000 307.470000 -0.230000 0.380000
31.000000 4305.200000 -8.000000 4.000000 8.000000 1283.704100 976.066700 1283.340000 976.690000 0.364100 -0.623300 0.721860 98.742250 -15.206160 18.047700 4305.200000 500.000000 257.110000 0.690000 0.700000 11.130000 0.220000 0.820000
32.000000 4170.570000 -9.000000 3.000000 3.000000 707.305200 261.212390 707.200000 261.110000 0.105200 0.102390 0.146800 132.704240 21.528240 12.398200 4170.570000 500.000000 108.160000 0.760000 0.840000 188.930000 0.200000 0.110000
33.000000 4160.120000 -7.000000 3.000000 5.000000 1141.288790 748.704220 1140.930000 748.400000 0.358790 0.304220 0.470400 112.879740 -6.115960 12.479130 4160.120000 500.000000 233.890000 0.830000 0.800000 342.240000 -0.070000 0.400000
34.000000 4044.720000 -5.000000 7.000000 3.000000 701.302780 1560.210660 701.050000 1560.170000 0.252780 0.040660 0.256030 64.371180 22.284580 19.522520 4044.720000 500.000000 143.900000 0.850000 0.870000 145.340000 0.050000 0.170000
35.000000 3856.170000 -5.000000 1.000000 7.000000 1730.128150 1063.836520 1730.330000 1063.320000 -0.201850 0.516520 0.554560 92.465660 -38.350050 13.688280 3856.170000 500.000000 135.190000 0.720000 0.770000 248.990000 0.620000 0.320000
36.000000 3693.430000 -9.000000 5.000000 5.000000 905.098990 804.217610 905.640000 804.810000 -0.541010 -0.592390 0.802260 109.603270 9.529400 15.987390 3693.430000 500.000000 243.710000 0.620000 0.630000 157.560000 0.810000 0.970000
37.000000 3277.590000 -10.000000 4.000000 6.000000 1055.319720 634.689790 1055.140000 634.640000 0.179720 0.049790 0.186490 119.128740 -0.443980 16.321660 3277.590000 500.000000 206.850000 0.810000 0.770000 10.770000 0.140000 0.350000
38.000000 3232.590000 -10.000000 6.000000 4.000000 703.215440 800.900960 703.420000 801.020000 -0.204560 -0.119040 0.236680 108.754020 21.934280 17.312190 3232.590000 500.000000 207.120000 0.750000 0.740000 170.490000 0.140000 0.020000
39.000000 3125.110000 -7.000000 5.000000 1.000000 289.977380 946.141240 289.690000 945.970000 0.287380 0.171240 0.334520 98.490550 41.494090 13.049430 3125.110000 500.000000 120.300000 0.870000 0.840000 242.730000 -0.310000 -0.030000
40.000000 3088.730000 -7.000000 5.000000 7.000000 1150.851720 1116.202290 1151.050000 1115.850000 -0.198280 0.352290 0.404260 89.825720 -6.645490 17.929940 3088.730000 500.000000 284.220000 0.890000 0.680000 6.540000 0.550000 -0.150000
41.000000 2830.160000 -7.000000 3.000000 7.000000 1339.525530 926.876270 1339.110000 926.870000 0.415530 0.006270 0.415580 101.583030 -18.622930 15.237850 2830.160000 500.000000 235.410000 0.910000 0.870000 338.130000 0.110000 0.590000
42.000000 2775.350000 -10.000000 2.000000 8.000000 1458.463410 556.775230 1458.760000 556.690000 -0.296590 0.085230 0.308590 120.232580 -25.489710 17.063420 2775.350000 500.000000 146.050000 0.710000 0.630000 187.820000 0.960000 0.290000
43.000000 2670.740000 -7.000000 7.000000 5.000000 861.060690 1249.993740 861.480000 1250.420000 -0.419310 -0.426260 0.597930 81.262890 12.500910 19.439900 2670.740000 500.000000 252.320000 0.780000 0.690000 354.000000 0.680000 0.820000
44.000000 2634.420000 -7.000000 7.000000 1.000000 327.851310 1321.360190 327.890000 1321.030000 -0.038690 0.330190 0.332450 79.695460 40.144140 17.724710 2634.420000 500.000000 115.060000 0.710000 0.790000 166.790000 0.390000 0.030000
45.000000 2612.620000 -9.000000 5.000000 3.000000 621.469850 713.227760 621.540000 713.500000 -0.070150 -0.272240 0.281140 112.750090 26.436270 14.700110 2612.620000 500.000000 171.030000 0.630000 0.840000 4.220000 0.340000 0.900000
46.000000 2377.760000 -5.000000 1.000000 3.000000 1274.968180 307.391330 1274.860000 306.950000 0.108180 0.441330 0.454400 132.132260 -14.817860 7.388070 2377.760000 500.000000 118.090000 0.790000 0.980000 326.560000 0.360000 -0.050000
47.000000 2278.070000 -9.000000 3.000000 7.000000 1280.268880 691.683790 1280.510000 691.440000 -0.241120 0.243790 0.342890 115.319120 -15.058400 15.927950 2278.070000 500.000000 203.700000 0.560000 0.830000 311.620000 0.910000 0.240000
48.000000 2195.880000 -9.000000 3.000000 5.000000 1063.321710 497.947590 1063.250000 497.790000 0.071710 0.157590 0.173140 125.594700 -1.016970 13.762710 2195.880000 500.000000 167.040000 0.850000 0.840000 56.410000 0.250000 0.500000
49.000000 2124.740000 -5.000000 3.000000 9.000000 1520.355980 1382.675810 1520.650000 1382.650000 -0.294020 0.025810 0.295150 74.519910 -28.627630 20.217770 2124.740000 500.000000 155.240000 0.700000 0.730000 28.000000 0.850000 0.250000
50.000000 2077.070000 -7.000000 1.000000 9.000000 1766.357560 958.092650 1765.960000 958.470000 0.397560 -0.377350 0.548130 97.775550 -39.815340 17.339900 2077.070000 500.000000 137.040000 0.650000 0.670000 157.710000 -0.040000 0.720000
51.000000 2052.310000 -7.000000 1.000000 7.000000 1660.844540 706.171870 1660.860000 706.310000 -0.015460 -0.138130 0.138990 111.000610 -35.434190 13.780730 2052.310000 500.000000 131.510000 0.750000 0.820000 208.100000 0.460000 0.510000
52.000000 1952.150000 -9.000000 5.000000 7.000000 1101.164680 907.331150 1101.370000 907.290000 -0.205320 0.041150 0.209410 103.486050 -3.416150 18.097240 1952.150000 500.000000 272.950000 0.760000 0.710000 181.150000 0.770000 0.090000
53.000000 1878.930000 -4.000000 6.000000 6.000000 1075.959400 1632.732290 1075.860000 1633.060000 0.099400 -0.327710 0.342450 58.830700 -1.527960 21.801600 1878.930000 500.000000 144.120000 0.690000 0.730000 15.920000 0.360000 0.560000
54.000000 1877.760000 -7.000000 3.000000 9.000000 1473.940920 1088.604160 1473.720000 1088.400000 0.220920 0.204160 0.300810 91.407880 -26.234980 18.801890 1877.760000 500.000000 204.750000 0.820000 0.690000 178.740000 0.320000 0.200000
55.000000 1746.380000 -5.000000 1.000000 9.000000 1819.759710 1305.196030 1819.620000 1305.460000 0.139710 -0.263970 0.298660 80.410640 -41.827040 18.290530 1746.380000 500.000000 102.990000 0.770000 0.880000 113.670000 0.220000 0.660000
56.000000 1676.950000 -8.000000 2.000000 10.000000 1626.671920 982.476160 1626.900000 982.640000 -0.228080 -0.163840 0.280830 97.106060 -33.860580 19.737540 1676.950000 500.000000 159.030000 0.710000 0.710000 338.960000 0.400000 0.140000
57.000000 1646.400000 -9.000000 7.000000 3.000000 575.900900 1017.225290 576.200000 1016.970000 -0.299100 0.255290 0.393240 95.754650 28.911110 18.143570 1646.400000 500.000000 191.850000 0.780000 0.840000 17.160000 0.700000 -0.030000
58.000000 1591.710000 -8.000000 8.000000 4.000000 701.484560 1242.052000 701.500000 1242.550000 -0.015440 -0.498000 0.498240 82.230580 22.173280 20.829790 1591.710000 500.000000 215.030000 0.820000 0.780000 2.030000 0.100000 0.750000
59.000000 1576.400000 -3.000000 1.000000 3.000000 1426.320310 858.386410 1426.670000 858.780000 -0.349690 -0.393590 0.526500 105.143190 -23.665360 6.265330 1576.400000 500.000000 203.380000 0.830000 0.920000 345.270000 0.840000 0.940000
60.000000 1466.190000 -5.000000 7.000000 5.000000 911.261890 1537.706520 911.320000 1538.140000 -0.058110 -0.433480 0.437350 64.047600 9.362130 21.417520 1466.190000 500.000000 172.410000 0.790000 0.770000 256.120000 0.820000 0.640000
61.000000 1399.400000 -11.000000 5.000000 5.000000 841.347670 613.429670 841.450000 613.020000 -0.102330 0.409670 0.422260 119.546030 13.544480 17.274880 1399.400000 500.000000 186.410000 0.750000 0.780000 180.310000 0.200000 0.020000
62.000000 1361.220000 -11.000000 3.000000 7.000000 1218.950530 481.947670 1219.190000 482.300000 -0.239470 -0.352330 0.426010 125.738490 -11.237730 17.159390 1361.220000 500.000000 155.430000 0.750000 0.740000 74.680000 0.690000 0.800000
63.000000 1343.440000 -9.000000 1.000000 7.000000 1588.314180 403.557790 1588.650000 403.050000 -0.335820 0.507790 0.608790 124.861390 -32.136300 14.737720 1343.440000 500.000000 103.190000 0.780000 0.870000 347.850000 0.900000 0.050000
64.000000 1331.830000 -6.000000 8.000000 2.000000 521.768000 1574.701350 521.920000 1574.920000 -0.152000 -0.218650 0.266290 65.563820 31.768250 21.498780 1331.830000 500.000000 110.930000 0.760000 0.770000 341.010000 0.420000 0.420000
65.000000 1277.200000 -9.000000 7.000000 5.000000 809.893280 1039.401450 810.650000 1039.110000 -0.756720 0.291450 0.810900 94.849540 15.644430 19.297810 1277.200000 500.000000 259.740000 0.770000 0.910000 70.510000 0.900000 0.110000
66.000000 1253.580000 -11.000000 3.000000 5.000000 981.902540 264.071910 982.110000 264.380000 -0.207460 -0.308090 0.371430 134.555090 4.323780 15.406450 1253.580000 500.000000 112.580000 0.840000 0.840000 281.470000 0.610000 0.880000
67.000000 1183.420000 -11.000000 5.000000 3.000000 537.269150 497.214510 537.370000 496.910000 -0.100850 0.304510 0.320780 121.744090 30.693170 16.268050 1183.420000 500.000000 120.540000 0.790000 0.900000 259.050000 0.120000 -0.090000
68.000000 1105.270000 -10.000000 8.000000 2.000000 393.510570 1057.445780 393.710000 1057.160000 -0.199430 0.285780 0.348490 93.148710 37.412190 20.370800 1105.270000 500.000000 141.270000 0.860000 0.640000 285.180000 0.210000 0.160000
69.000000 1055.910000 -9.000000 7.000000 1.000000 245.254300 1050.183970 245.420000 1050.380000 -0.165700 -0.196030 0.256680 93.276830 43.150310 17.969250 1055.910000 500.000000 109.290000 0.870000 0.850000 10.090000 0.090000 0.720000
70.000000 1019.630000 -11.000000 5.000000 7.000000 1050.178780 728.282050 1050.010000 728.620000 0.168780 -0.337950 0.377750 114.161440 -0.073850 18.987990 1019.630000 500.000000 229.500000 0.620000 0.900000 271.630000 0.010000 0.120000
71.000000 943.570000 -12.000000 6.000000 2.000000 297.330800 544.176440 296.950000 544.570000 0.380800 -0.393560 0.547630 116.653350 41.114680 18.192850 943.570000 500.000000 94.180000 0.830000 0.970000 150.910000 -0.050000 0.820000
72.000000 887.260000 -11.000000 7.000000 3.000000 510.660660 823.993140 510.170000 824.170000 0.490660 -0.176860 0.521560 106.078940 32.081370 19.111840 887.260000 500.000000 160.140000 0.730000 0.760000 317.700000 0.170000 0.670000
73.000000 860.610000 -7.000000 5.000000 9.000000 1286.224390 1221.476980 1285.920000 1221.220000 0.304390 0.256980 0.398360 83.049710 -15.306140 21.435730 860.610000 500.000000 242.820000 0.580000 0.670000 87.470000 -0.080000 0.220000
74.000000 797.370000 -10.000000 6.000000 8.000000 1090.074690 955.341050 1090.080000 954.930000 -0.005310 0.411050 0.411080 100.440620 -2.665060 21.004630 797.370000 500.000000 280.010000 0.820000 0.810000 76.780000 0.580000 -0.070000
75.000000 772.050000 -9.000000 1.000000 9.000000 1711.024980 677.920910 1711.330000 678.470000 -0.305020 -0.549090 0.628120 111.756400 -37.596130 17.603280 772.050000 500.000000 116.630000 0.920000 0.940000 156.430000 0.670000 0.800000
76.000000 708.970000 -11.000000 3.000000 9.000000 1377.351160 660.056950 1377.040000 659.840000 0.311160 0.216950 0.379320 116.174260 -20.909940 19.532530 708.970000 500.000000 176.810000 0.750000 0.710000 192.030000 0.040000 -0.160000
77.000000 706.880000 -13.000000 5.000000 5.000000 775.463750 434.640320 775.110000 434.930000 0.353750 -0.289680 0.457230 127.014970 17.557080 18.873500 706.880000 500.000000 136.170000 0.850000 0.600000 354.940000 0.110000 0.430000
78.000000 703.030000 -11.000000 7.000000 5.000000 757.517670 863.952870 757.840000 863.720000 -0.322330 0.232870 0.397650 105.477440 18.773850 20.027100 703.030000 500.000000 226.880000 0.690000 0.820000 356.500000 0.340000 -0.280000
79.000000 655.210000 -9.000000 7.000000 7.000000 984.197220 1090.304560 983.890000 1090.230000 0.307220 0.074560 0.316140 91.596390 4.426170 21.302210 655.210000 500.000000 290.270000 0.740000 0.610000 177.720000 -0.110000 0.230000
80.000000 646.940000 -14.000000 4.000000 6.000000 925.560120 260.601370 925.430000 261.100000 0.130120 -0.498630 0.515330 134.479460 8.026870 19.493180 646.940000 500.000000 111.420000 0.810000 0.910000 208.360000 0.430000 0.600000
81.000000 550.970000 -9.000000 5.000000 9.000000 1244.790350 1013.320570 1244.110000 1013.220000 0.680350 0.100570 0.687750 96.466500 -12.754050 20.927230 550.970000 500.000000 264.450000 0.550000 0.890000 79.260000 0.110000 0.220000
82.000000 492.940000 -12.000000 2.000000 10.000000 1531.362910 552.447410 1530.970000 552.130000 0.392910 0.317410 0.505100 119.553000 -29.314530 20.803070 492.940000 500.000000 130.470000 0.860000 0.650000 4.260000 -0.030000 0.130000
#UB matrix in q= (UB) B0 G* 
#[[ 0.972960637  0.092431066 -0.21166978 ]
# [-0.224785261  0.589607759 -0.775779786]
# [ 0.053095992  0.802383442  0.594442282]]
#Umatrix in q_lab= (UB) B0 G* 
#[[ 0.972960637  0.092431066 -0.21166978 ]
# [-0.224785261  0.589607759 -0.775779786]
# [ 0.053095992  0.802383442  0.594442282]]
#Bmatrix in q_lab= (UB) B0 G* 
#[[ 1.  0. -0.]
# [-0.  1.  0.]
# [ 0. -0.  1.]]
#(B-I)*1000 
#[[ 0.  0. -0.]
# [-0. -0.  0.]
# [ 0. -0.  0.]]
#HKL coord. of lab and sample frame axes :
#HKLx_lab_LT	[ 1.     0.095 -0.218]
#HKLy_lab_LT	[-0.29  0.76 -1.  ]
#HKLz_lab_LT	[0.066 1.    0.741]
#HKLx_sample_LT	[1.    0.753 0.282]
#HKLy_sample_LT	[-0.29  0.76 -1.  ]
#HKLz_sample_LT	[-0.989  0.939  1.   ]
#B0 matrix in q= UB (B0) G*
#[[ 0.18413154 -0.         -0.        ]
# [ 0.          0.18413154 -0.        ]
# [ 0.          0.          0.18413154]]
#UBB0 matrix in q= (UB B0) G* i.e. recip. basis vectors are columns in LT frame: astar = UBB0[0,:], bstar = UBB0[1,:], cstar = UBB0[2,:]. (abcstar as lines on xyzlab1, xlab1 = ui, ui = unit vector along incident beam)
#[[ 0.17915274  0.01701947 -0.03897508]
# [-0.04139006  0.10856539 -0.14284553]
# [ 0.00977665  0.1477441   0.10945558]]
#Euler angles phi theta psi (deg)
#[176.214  53.527 164.738]
#CCDLabel
#MARCCD165
#DetectorParameters
#[69.193, 1050.794, 1116.328, 0.154, -0.255]
#pixelsize
#0.08057
#Frame dimensions
#(2048, 2048)
#
